Misura	Tempo di acquisizione (sec)	Umidità relativa (%)	Temperatura (°C)
0	0.094	57.949	26.26
1	0.494	57.977	26.24
2	0.894	57.949	26.26
3	1.294	57.949	26.26
4	1.694	57.977	26.24
5	2.094	57.947	26.25
6	2.494	57.947	26.25
7	2.894	57.945	26.24
8	3.294	57.947	26.25
9	3.694	57.949	26.26
10	4.094	57.945	26.24
11	4.494	57.945	26.24
12	4.894	57.914	26.24
13	5.294	57.916	26.25
14	5.694	57.917	26.26
15	6.094	57.916	26.25
16	6.494	57.917	26.26
17	6.894	57.919	26.27
18	7.294	57.917	26.26
19	7.694	57.917	26.26
20	8.094	57.886	26.26
21	8.494	57.889	26.28
22	8.894	57.889	26.28
23	9.294	57.889	26.28
24	9.694	57.888	26.27
25	10.094	57.889	26.28
26	10.494	57.889	26.28
27	10.894	57.888	26.27
28	11.294	57.888	26.27
29	11.694	57.889	26.28
30	12.094	57.886	26.26
31	12.494	57.886	26.26
32	12.894	57.857	26.27
33	13.294	57.888	26.27
34	13.694	57.886	26.26
35	14.094	57.886	26.26
36	14.494	57.888	26.27
37	14.894	57.886	26.26
38	15.294	57.886	26.26
39	15.694	57.889	26.28
40	16.094	57.888	26.27
41	16.494	57.889	26.28
42	16.894	57.888	26.27
43	17.294	57.886	26.26
44	17.694	57.857	26.27
45	18.094	57.889	26.28
46	18.494	57.889	26.28
47	18.894	57.858	26.28
48	19.294	57.858	26.28
49	19.694	57.86	26.29
50	20.094	57.858	26.28
51	20.494	57.861	26.3
52	20.894	57.86	26.29
53	21.294	57.829	26.29
54	21.694	57.829	26.29
55	22.094	57.861	26.3
56	22.494	57.83	26.3
57	22.894	57.83	26.3
58	23.294	57.829	26.29
59	23.694	57.829	26.29
60	24.094	57.829	26.29
61	24.494	57.829	26.29
62	24.894	57.83	26.3
63	25.294	57.799	26.3
64	25.694	57.798	26.29
65	26.194	57.798	26.29
66	26.594	57.827	26.28
67	26.994	57.829	26.29
68	27.394	57.798	26.29
69	27.794	57.798	26.29
70	28.194	57.799	26.3
71	28.594	57.799	26.3
72	28.994	57.83	26.3
73	29.394	57.798	26.29
74	29.794	57.829	26.29
